Mass 1: 5.044511E12 kg
Diameter 1: 8.0912695 m
Mass 2: 4.968899E12 kg
Diameter 2: 8.010815 m

Time (s)	Distance (m)	Gravitational Force (MN)
0.02		311.78		16930.52
0.04		311.78		16930.59
0.06		311.78		16930.70
0.06		311.78		16930.81
0.07		311.78		16930.93
0.08		311.78		16931.06
0.09		311.77		16931.20
0.09		311.77		16931.35
0.10		311.77		16931.50
0.11		311.77		16931.67
0.12		311.77		16931.84
0.13		311.77		16932.02
0.14		311.77		16932.22
0.14		311.76		16932.42
0.15		311.76		16932.62
0.16		311.76		16932.84
0.17		311.76		16933.07
0.18		311.76		16933.31
0.18		311.75		16933.55
0.19		311.75		16933.81
0.20		311.75		16934.07
0.21		311.75		16934.35
0.22		311.74		16934.63
0.23		311.74		16934.93
0.23		311.74		16935.23
0.24		311.73		16935.56
0.25		311.73		16935.88
0.26		311.73		16936.23
0.26		311.73		16936.59
0.28		311.72		16936.96
0.28		311.72		16937.34
0.29		311.71		16937.75
0.30		311.71		16938.16
0.31		311.71		16938.59
0.32		311.70		16939.02
0.33		311.70		16939.46
0.34		311.69		16939.91
0.34		311.69		16940.37
0.35		311.69		16940.84
0.36		311.68		16941.32
0.37		311.68		16941.80
0.38		311.67		16942.29
0.39		311.67		16942.80
0.39		311.66		16943.31
0.40		311.66		16943.84
0.41		311.65		16944.37
0.42		311.65		16944.91
0.42		311.64		16945.46
0.44		311.64		16946.03
0.44		311.63		16946.60
0.45		311.63		16947.19
0.46		311.62		16947.78
0.47		311.62		16948.40
0.47		311.61		16949.01
0.49		311.60		16949.66
0.49		311.60		16950.30
0.50		311.59		16950.97
0.51		311.59		16951.65
0.52		311.58		16952.34
0.53		311.57		16953.04
0.54		311.57		16953.75
0.54		311.56		16954.47
0.55		311.55		16955.19
0.56		311.55		16955.93
0.57		311.54		16956.67
0.58		311.53		16957.43
0.58		311.53		16958.19
0.59		311.52		16958.98
0.60		311.51		16959.76
0.61		311.50		16960.57
0.62		311.50		16961.38
0.63		311.49		16962.21
0.63		311.48		16963.04
0.64		311.47		16963.90
0.65		311.47		16964.75
0.66		311.46		16965.64
0.66		311.45		16966.52
0.68		311.44		16967.44
0.68		311.43		16968.35
0.69		311.42		16969.29
0.70		311.42		16970.24
0.71		311.41		16971.22
0.72		311.40		16972.20
0.73		311.39		16973.20
0.74		311.38		16974.21
0.74		311.37		16975.22
0.75		311.36		16976.25
0.76		311.35		16977.28
0.77		311.34		16978.33
0.78		311.33		16979.38
0.79		311.32		16980.45
0.79		311.31		16981.52
0.80		311.30		16982.61
0.81		311.29		16983.70
0.82		311.28		16984.81
0.82		311.27		16985.92
0.84		311.26		16987.06
0.84		311.25		16988.19
0.85		311.24		16989.35
0.86		311.23		16990.51
0.87		311.22		16991.70
0.87		311.21		16992.88
0.89		311.20		16994.10
0.89		311.19		16995.31
0.90		311.17		16996.56
0.90		311.16		16997.80
0.92		311.15		16999.08
0.93		311.14		17000.36
0.94		311.13		17001.66
0.94		311.12		17002.96
0.95		311.10		17004.27
0.96		311.09		17005.60
0.97		311.08		17006.93
0.98		311.07		17008.27
0.98		311.06		17009.62
0.99		311.04		17010.98
1.00		311.03		17012.35
1.01		311.02		17013.74
1.02		311.00		17015.13
1.03		310.99		17016.53
1.03		310.98		17017.94
1.04		310.97		17019.37
1.05		310.95		17020.81
1.06		310.94		17022.26
1.06		310.93		17023.72
1.08		310.91		17025.21
1.08		310.90		17026.69
1.09		310.89		17028.21
1.10		310.87		17029.72
1.11		310.86		17031.27
1.12		310.84		17032.82
1.13		310.83		17034.39
1.14		310.81		17035.96
1.14		310.80		17037.55
1.15		310.79		17039.14
1.16		310.77		17040.74
1.17		310.76		17042.36
1.18		310.74		17043.98
1.19		310.73		17045.61
1.19		310.71		17047.25
1.20		310.70		17048.91
1.21		310.68		17050.57
1.22		310.67		17052.24
1.22		310.65		17053.92
1.24		310.64		17055.63
1.24		310.62		17057.33
1.25		310.60		17059.06
1.26		310.59		17060.79
1.27		310.57		17062.54
1.27		310.56		17064.30
1.29		310.54		17066.08
1.29		310.52		17067.87
1.30		310.51		17069.68
1.30		310.49		17071.50
1.32		310.47		17073.34
1.33		310.46		17075.20
1.34		310.44		17077.07
1.34		310.42		17078.94
1.35		310.41		17080.83
1.36		310.39		17082.73
1.37		310.37		17084.63
1.38		310.35		17086.55
1.38		310.34		17088.48
1.39		310.32		17090.42
1.40		310.30		17092.36
1.41		310.28		17094.33
1.42		310.27		17096.29
1.43		310.25		17098.28
1.43		310.23		17100.27
1.44		310.21		17102.28
1.45		310.19		17104.29
1.46		310.17		17106.33
1.46		310.16		17108.37
1.48		310.14		17110.44
1.48		310.12		17112.51
1.49		310.10		17114.61
1.50		310.08		17116.71
1.51		310.06		17118.85
1.52		310.04		17121.00
1.53		310.02		17123.16
1.54		310.00		17125.33
1.54		309.98		17127.51
1.55		309.96		17129.70
1.56		309.94		17131.90
1.57		309.92		17134.12
1.58		309.90		17136.34
1.59		309.88		17138.58
1.59		309.86		17140.82
1.60		309.84		17143.08
1.61		309.82		17145.34
1.62		309.80		17147.62
1.62		309.78		17149.91
1.64		309.76		17152.22
1.64		309.74		17154.53
1.65		309.72		17156.86
1.66		309.70		17159.19
1.67		309.68		17161.54
1.67		309.65		17163.90
1.69		309.63		17166.28
1.69		309.61		17168.66
1.70		309.59		17171.07
1.70		309.57		17173.48
1.72		309.55		17175.91
1.73		309.52		17178.36
1.74		309.50		17180.81
1.74		309.48		17183.27
1.75		309.46		17185.74
1.76		309.43		17188.22
1.77		309.41		17190.70
1.78		309.39		17193.20
1.78		309.37		17195.70
1.79		309.34		17198.21
1.80		309.32		17200.73
1.81		309.30		17203.27
1.82		309.28		17205.80
1.83		309.25		17208.36
1.83		309.23		17210.92
1.84		309.21		17213.50
1.85		309.18		17216.08
1.86		309.16		17218.68
1.86		309.14		17221.28
1.88		309.11		17223.91
1.88		309.09		17226.53
1.89		309.07		17229.19
1.90		309.04		17231.84
1.91		309.02		17234.52
1.91		308.99		17237.20
1.93		308.97		17239.92
1.94		308.95		17242.64
1.94		308.92		17245.37
1.95		308.90		17248.11
1.96		308.87		17250.86
1.97		308.85		17253.63
1.98		308.82		17256.39
1.99		308.80		17259.17
1.99		308.77		17261.96
2.00		308.75		17264.76
2.01		308.72		17267.57
2.02		308.70		17270.39
2.02		308.67		17273.22
2.04		308.65		17276.06
2.04		308.62		17278.90
2.05		308.60		17281.77
2.06		308.57		17284.64
2.07		308.54		17287.54
2.07		308.52		17290.43
2.09		308.49		17293.35
2.09		308.47		17296.28
2.10		308.44		17299.23
2.11		308.41		17302.20
2.12		308.39		17305.17
2.13		308.36		17308.15
2.14		308.33		17311.15
2.14		308.31		17314.15
2.15		308.28		17317.16
2.16		308.25		17320.18
2.17		308.23		17323.21
2.18		308.20		17326.25
2.18		308.17		17329.30
2.19		308.15		17332.37
2.20		308.12		17335.44
2.21		308.09		17338.52
2.22		308.06		17341.61
2.23		308.04		17344.72
2.23		308.01		17347.84
2.24		307.98		17350.97
2.25		307.95		17354.11
2.26		307.92		17357.27
2.26		307.90		17360.43
2.28		307.87		17363.62
2.28		307.84		17366.81
2.29		307.81		17370.03
2.30		307.78		17373.25
2.31		307.75		17376.49
2.31		307.73		17379.75
2.33		307.70		17383.03
2.34		307.67		17386.32
2.34		307.64		17389.62
2.35		307.61		17392.93
2.36		307.58		17396.25
2.37		307.55		17399.59
2.38		307.52		17402.93
2.39		307.49		17406.28
2.39		307.46		17409.64
2.40		307.43		17413.02
2.41		307.40		17416.40
2.42		307.37		17419.80
2.42		307.34		17423.20
2.44		307.31		17426.62
2.44		307.28		17430.05
2.45		307.25		17433.50
2.46		307.22		17436.95
2.47		307.19		17440.43
2.47		307.16		17443.90
2.49		307.13		17447.41
2.49		307.10		17450.92
2.50		307.07		17454.45
2.50		307.03		17457.99
2.52		307.00		17461.56
2.53		306.97		17465.14
2.54		306.94		17468.73
2.54		306.91		17472.34
2.55		306.88		17475.94
2.56		306.85		17479.57
2.57		306.81		17483.20
2.58		306.78		17486.84
2.58		306.75		17490.49
2.59		306.72		17494.15
2.60		306.69		17497.83
2.61		306.65		17501.51
2.62		306.62		17505.21
2.63		306.59		17508.92
2.63		306.56		17512.64
2.64		306.52		17516.38
2.65		306.49		17520.12
2.66		306.46		17523.89
2.66		306.42		17527.66
2.68		306.39		17531.46
2.68		306.36		17535.26
2.69		306.32		17539.08
2.70		306.29		17542.91
2.71		306.26		17546.77
2.71		306.22		17550.63
2.73		306.19		17554.53
2.74		306.16		17558.44
2.74		306.12		17562.35
2.75		306.09		17566.28
2.76		306.05		17570.21
2.77		306.02		17574.16
2.78		305.98		17578.12
2.79		305.95		17582.09
2.79		305.91		17586.06
2.80		305.88		17590.06
2.81		305.85		17594.05
2.82		305.81		17598.07
2.82		305.78		17602.09
2.84		305.74		17606.14
2.84		305.71		17610.18
2.85		305.67		17614.25
2.86		305.63		17618.33
2.87		305.60		17622.43
2.87		305.56		17626.53
2.89		305.53		17630.66
2.89		305.49		17634.79
2.90		305.46		17638.96
2.91		305.42		17643.13
2.92		305.38		17647.32
2.93		305.35		17651.52
2.94		305.31		17655.72
2.94		305.27		17659.94
2.95		305.24		17664.17
2.96		305.20		17668.41
2.97		305.16		17672.66
2.98		305.13		17676.92
2.98		305.09		17681.19
2.99		305.05		17685.47
3.00		305.02		17689.77
3.01		304.98		17694.07
3.02		304.94		17698.39
3.03		304.91		17702.72
3.03		304.87		17707.06
3.04		304.83		17711.43
3.05		304.79		17715.79
3.06		304.75		17720.18
3.06		304.72		17724.57
3.08		304.68		17729.00
3.08		304.64		17733.42
3.09		304.60		17737.87
3.10		304.56		17742.33
3.11		304.53		17746.82
3.11		304.49		17751.31
3.13		304.45		17755.83
3.14		304.41		17760.37
3.14		304.37		17764.91
3.15		304.33		17769.47
3.16		304.29		17774.04
3.17		304.25		17778.62
3.18		304.21		17783.21
3.19		304.17		17787.81
3.19		304.14		17792.42
3.20		304.10		17797.05
3.21		304.06		17801.68
3.22		304.02		17806.33
3.22		303.98		17810.99
3.24		303.94		17815.67
3.24		303.90		17820.35
3.25		303.86		17825.06
3.26		303.82		17829.77
3.27		303.78		17834.50
3.27		303.74		17839.24
3.29		303.70		17844.01
3.29		303.65		17848.79
3.30		303.61		17853.59
3.31		303.57		17858.41
3.32		303.53		17863.23
3.33		303.49		17868.07
3.34		303.45		17872.92
3.34		303.41		17877.79
3.35		303.37		17882.66
3.36		303.33		17887.54
3.37		303.28		17892.43
3.38		303.24		17897.34
3.38		303.20		17902.26
3.39		303.16		17907.19
3.40		303.12		17912.13
3.41		303.08		17917.08
3.42		303.03		17922.05
3.43		302.99		17927.03
3.43		302.95		17932.02
3.44		302.91		17937.03
3.45		302.86		17942.05
3.46		302.82		17947.09
3.46		302.78		17952.13
3.48		302.74		17957.20
3.48		302.69		17962.28
3.49		302.65		17967.39
3.50		302.61		17972.49
3.51		302.56		17977.64
3.51		302.52		17982.78
3.53		302.48		17987.96
3.54		302.43		17993.16
3.54		302.39		17998.36
3.55		302.35		18003.58
3.56		302.30		18008.80
3.57		302.26		18014.04
3.58		302.21		18019.29
3.59		302.17		18024.56
3.59		302.13		18029.83
3.60		302.08		18035.12
3.61		302.04		18040.41
3.62		301.99		18045.73
3.62		301.95		18051.05
3.64		301.90		18056.39
3.64		301.86		18061.74
3.65		301.81		18067.11
3.66		301.77		18072.49
3.67		301.72		18077.89
3.67		301.68		18083.30
3.69		301.63		18088.74
3.69		301.59		18094.18
3.70		301.54		18099.66
3.71		301.50		18105.15
3.72		301.45		18110.65
3.73		301.41		18116.16
3.74		301.36		18121.69
3.74		301.31		18127.23
3.75		301.27		18132.78
3.76		301.22		18138.34
3.77		301.18		18143.91
3.78		301.13		18149.50
3.78		301.08		18155.10
3.79		301.04		18160.71
3.80		300.99		18166.33
3.81		300.94		18171.97
3.82		300.90		18177.62
3.83		300.85		18183.29
3.83		300.80		18188.97
3.84		300.75		18194.67
3.85		300.71		18200.37
3.86		300.66		18206.10
3.86		300.61		18211.84
3.88		300.57		18217.61
3.88		300.52		18223.38
3.89		300.47		18229.18
3.90		300.42		18234.98
3.91		300.37		18240.82
3.92		300.33		18246.68
3.93		300.28		18252.54
3.94		300.23		18258.42
3.94		300.18		18264.31
3.95		300.13		18270.22
3.96		300.08		18276.13
3.97		300.04		18282.07
3.98		299.99		18288.01
3.99		299.94		18293.96
3.99		299.89		18299.93
4.00		299.84		18305.92
4.01		299.79		18311.91
4.02		299.74		18317.93
4.02		299.69		18323.95
4.04		299.64		18329.99
4.04		299.59		18336.05
4.05		299.54		18342.13
4.06		299.49		18348.21
4.07		299.44		18354.32
4.07		299.39		18360.44
4.09		299.34		18366.60
4.09		299.29		18372.75
4.10		299.24		18378.94
4.10		299.19		18385.14
4.12		299.14		18391.37
4.13		299.09		18397.62
4.14		299.04		18403.88
4.14		298.99		18410.16
4.15		298.94		18416.45
4.16		298.89		18422.75
4.17		298.84		18429.06
4.18		298.78		18435.39
4.18		298.73		18441.73
4.19		298.68		18448.10
4.20		298.63		18454.46
4.21		298.58		18460.86
4.22		298.53		18467.25
4.23		298.48		18473.68
4.23		298.42		18480.11
4.24		298.37		18486.57
4.25		298.32		18493.03
4.26		298.27		18499.53
4.26		298.21		18506.02
4.28		298.16		18512.56
4.28		298.11		18519.10
4.29		298.06		18525.67
4.30		298.00		18532.25
4.31		297.95		18538.87
4.32		297.90		18545.50
4.33		297.84		18552.15
4.34		297.79		18558.81
4.34		297.74		18565.48
4.35		297.68		18572.18
4.36		297.63		18578.88
4.37		297.57		18585.60
4.38		297.52		18592.33
4.39		297.47		18599.09
4.39		297.41		18605.85
4.40		297.36		18612.63
4.41		297.30		18619.43
4.42		297.25		18626.25
4.42		297.20		18633.07
4.44		297.14		18639.93
4.44		297.09		18646.79
4.45		297.03		18653.69
4.46		296.98		18660.58
4.47		296.92		18667.52
4.47		296.87		18674.46
4.49		296.81		18681.43
4.49		296.76		18688.41
4.50		296.70		18695.43
4.50		296.64		18702.46
4.52		296.59		18709.53
4.53		296.53		18716.61
4.54		296.48		18723.71
4.54		296.42		18730.83
4.55		296.36		18737.96
4.56		296.31		18745.11
4.57		296.25		18752.27
4.58		296.19		18759.46
4.58		296.14		18766.65
4.59		296.08		18773.86
4.60		296.02		18781.09
4.61		295.97		18788.34
4.62		295.91		18795.60
4.63		295.85		18802.89
4.63		295.79		18810.19
4.64		295.74		18817.51
4.65		295.68		18824.85
4.66		295.62		18832.22
4.66		295.56		18839.59
4.68		295.50		18847.01
4.68		295.45		18854.42
4.69		295.39		18861.89
4.70		295.33		18869.35
4.71		295.27		18876.87
4.72		295.21		18884.40
4.73		295.15		18891.94
4.74		295.09		18899.51
4.74		295.03		18907.09
4.75		294.97		18914.68
4.76		294.92		18922.30
4.77		294.86		18929.93
4.78		294.80		18937.58
4.79		294.74		18945.25
4.79		294.68		18952.92
4.80		294.62		18960.63
4.81		294.56		18968.35
4.82		294.50		18976.09
4.82		294.44		18983.85
4.84		294.38		18991.64
4.84		294.32		18999.43
4.85		294.26		19007.26
4.86		294.20		19015.10
4.87		294.13		19022.98
4.87		294.07		19030.87
4.89		294.01		19038.80
4.89		293.95		19046.74
4.90		293.89		19054.72
4.90		293.83		19062.72
4.92		293.77		19070.76
4.93		293.70		19078.82
4.94		293.64		19086.90
4.94		293.58		19095.00
4.95		293.52		19103.12
4.96		293.45		19111.26
4.97		293.39		19119.41
4.98		293.33		19127.59
4.98		293.27		19135.78
4.99		293.20		19144.00
5.00		293.14		19152.23
5.01		293.08		19160.49
5.02		293.01		19168.76
5.03		292.95		19177.07
5.03		292.89		19185.39
5.04		292.82		19193.74
5.05		292.76		19202.11
5.06		292.69		19210.52
5.06		292.63		19218.94
5.08		292.57		19227.40
5.08		292.50		19235.88
5.09		292.44		19244.40
5.10		292.37		19252.93
5.11		292.31		19261.52
5.12		292.24		19270.13
5.13		292.18		19278.77
5.14		292.11		19287.42
5.14		292.05		19296.10
5.15		291.98		19304.80
5.16		291.91		19313.52
5.17		291.85		19322.27
5.18		291.78		19331.03
5.19		291.71		19339.82
5.19		291.65		19348.63
5.20		291.58		19357.48
5.21		291.51		19366.34
5.22		291.45		19375.24
5.22		291.38		19384.16
5.24		291.31		19392.94
5.24		291.25		19401.28
5.25		291.19		19409.20
5.26		291.14		19416.83
5.27		291.08		19424.42
5.27		291.02		19432.01
5.29		290.96		19439.67
5.29		290.91		19447.33
5.30		290.85		19455.06
5.30		290.79		19462.80
5.32		290.73		19470.61
5.33		290.67		19478.45
5.34		290.62		19486.31
5.34		290.56		19494.20
5.35		290.50		19502.11
5.36		290.44		19510.06
5.37		290.38		19518.02
5.38		290.32		19526.01
5.38		290.26		19534.02
5.39		290.20		19542.07
5.40		290.14		19550.13
5.41		290.08		19558.24
5.42		290.02		19566.36
5.43		289.96		19574.53
5.43		289.90		19582.71
5.44		289.84		19590.94
5.45		289.78		19599.19
5.46		289.72		19607.50
5.46		289.66		19615.81
5.48		289.59		19624.20
5.48		289.53		19632.60
5.49		289.47		19641.08
5.50		289.41		19649.56
5.51		289.34		19658.13
5.52		289.28		19666.73
5.53		289.22		19675.36
5.54		289.15		19684.02
5.54		289.09		19692.71
5.55		289.03		19701.43
5.56		288.96		19710.18
5.57		288.90		19718.97
5.58		288.83		19727.78
5.59		288.77		19736.64
5.59		288.70		19745.52
5.60		288.64		19754.45
5.61		288.57		19763.39
5.62		288.51		19772.40
5.62		288.44		19781.42
5.64		288.37		19790.50
5.64		288.31		19799.60
5.65		288.24		19808.78
5.66		288.17		19817.96
5.67		288.11		19827.23
5.67		288.04		19836.50
5.69		287.97		19845.86
5.69		287.90		19855.23
5.70		287.84		19864.70
5.70		287.77		19874.17
5.72		287.70		19883.75
5.73		287.63		19893.36
5.74		287.56		19903.00
5.74		287.49		19912.68
5.75		287.42		19922.39
5.76		287.35		19932.14
5.77		287.28		19941.91
5.78		287.21		19951.73
5.78		287.14		19961.57
5.79		287.06		19971.46
5.80		286.99		19981.36
5.81		286.92		19991.33
5.82		286.85		20001.30
5.83		286.78		20011.34
5.83		286.71		20021.38
5.84		286.63		20031.49
5.85		286.56		20041.61
5.86		286.49		20051.80
5.86		286.42		20062.00
5.88		286.34		20072.28
5.88		286.27		20082.56
5.89		286.20		20092.92
5.90		286.12		20103.29
5.91		286.05		20113.67
5.91		285.98		20123.87
5.93		285.90		20133.93
5.94		285.83		20143.87
5.94		285.76		20153.79
5.95		285.69		20163.73
5.96		285.62		20173.71
5.97		285.55		20183.71
5.98		285.48		20193.74
5.99		285.41		20203.81
5.99		285.34		20213.90
6.00		285.27		20224.04
6.01		285.19		20234.19
6.02		285.12		20244.39
6.02		285.05		20254.60
6.04		284.98		20264.88
6.04		284.91		20275.16
6.05		284.83		20285.51
6.06		284.76		20295.87
6.07		284.69		20306.30
6.08		284.61		20316.82
6.09		284.54		20327.35
6.10		284.47		20337.96
6.11		284.39		20348.60
6.12		284.32		20359.28
6.13		284.24		20369.99
6.14		284.17		20380.73
6.14		284.09		20391.50
6.15		284.02		20402.25
6.16		283.94		20412.95
6.17		283.87		20423.61
6.18		283.80		20434.25
6.18		283.72		20444.91
6.19		283.65		20455.62
6.20		283.57		20466.34
6.21		283.50		20477.12
6.22		283.42		20487.92
6.23		283.35		20498.77
6.23		283.27		20509.65
6.24		283.20		20520.57
6.25		283.12		20531.49
6.26		283.05		20542.45
6.26		282.97		20553.40
6.28		282.90		20564.40
6.28		282.82		20575.40
6.29		282.74		20586.47
6.30		282.67		20597.53
6.31		282.59		20608.68
6.31		282.52		20619.81
6.33		282.44		20631.02
6.34		282.36		20642.24
6.34		282.29		20653.48
6.35		282.21		20664.74
6.36		282.13		20676.02
6.37		282.05		20687.34
6.38		281.98		20698.67
6.39		281.90		20710.05
6.39		281.82		20721.43
6.40		281.74		20732.86
6.41		281.67		20744.29
6.42		281.59		20755.77
6.42		281.51		20767.25
6.44		281.43		20778.78
6.44		281.35		20790.32
6.45		281.28		20801.92
6.46		281.20		20813.52
6.47		281.12		20825.18
6.47		281.04		20836.83
6.49		280.96		20848.56
6.49		280.88		20860.28
6.50		280.80		20872.09
6.51		280.72		20883.90
6.52		280.64		20895.74
6.52		280.56		20907.57
6.54		280.48		20919.50
6.54		280.40		20931.45
6.55		280.32		20943.41
6.56		280.24		20955.40
6.57		280.16		20967.41
6.58		280.08		20979.46
6.58		280.00		20991.53
6.59		279.92		21003.64
6.60		279.84		21015.77
6.61		279.76		21027.94
6.62		279.68		21040.12
6.63		279.60		21052.36
6.63		279.52		21064.59
6.64		279.44		21076.89
6.65		279.35		21089.19
6.66		279.27		21101.55
6.66		279.19		21113.92
6.68		279.11		21126.36
6.68		279.03		21138.79
6.69		278.94		21151.31
6.70		278.86		21163.82
6.71		278.78		21176.42
6.71		278.70		21189.01
6.73		278.61		21201.68
6.74		278.53		21214.38
6.74		278.45		21227.09
6.75		278.36		21239.84
6.76		278.28		21252.61
6.77		278.19		21265.43
6.78		278.11		21278.26
6.79		278.03		21291.15
6.79		277.94		21304.04
6.80		277.86		21316.99
6.81		277.77		21329.95
6.82		277.69		21342.96
6.82		277.60		21355.98
6.84		277.52		21369.06
6.84		277.43		21382.14
6.85		277.35		21395.29
6.86		277.26		21408.45
6.87		277.18		21421.68
6.87		277.09		21434.91
6.89		277.01		21448.23
6.89		276.92		21461.54
6.90		276.83		21474.94
6.90		276.75		21488.33
6.92		276.66		21501.82
6.93		276.57		21515.33
6.94		276.49		21528.86
6.94		276.40		21542.42
6.95		276.31		21556.02
6.96		276.23		21569.65
6.97		276.14		21583.32
6.98		276.05		21597.03
6.98		275.96		21610.76
6.99		275.87		21624.55
7.00		275.79		21638.34
7.01		275.70		21652.19
7.02		275.61		21666.05
7.03		275.52		21679.98
7.03		275.43		21693.91
7.04		275.34		21707.91
7.05		275.26		21721.92
7.06		275.17		21736.01
7.06		275.08		21750.10
7.08		274.99		21764.27
7.08		274.90		21778.44
7.09		274.81		21792.71
7.10		274.72		21806.98
7.11		274.63		21821.35
7.12		274.54		21835.74
7.13		274.45		21850.16
7.14		274.36		21864.61
7.14		274.26		21879.09
7.15		274.17		21893.63
7.16		274.08		21908.19
7.17		273.99		21922.81
7.18		273.90		21937.45
7.19		273.81		21952.14
7.19		273.72		21966.84
7.20		273.62		21981.61
7.21		273.53		21996.39
7.22		273.44		22011.23
7.22		273.35		22026.09
